# wavelength[angstrom]  transmittance
 6503.0  0.0050
 6507.3  0.0050
 6511.6  0.0049
 6516.0  0.0049
 6520.3  0.0050
 6524.6  0.0050
 6528.9  0.0050
 6533.3  0.0049
 6537.6  0.0051
 6541.9  0.0050
 6546.3  0.0051
 6550.6  0.0051
 6554.9  0.0051
 6559.2  0.0050
 6563.6  0.0051
 6567.9  0.0051
 6572.2  0.0051
 6576.6  0.0050
 6580.9  0.0052
 6585.2  0.0052
 6589.5  0.0051
 6593.9  0.0051
 6598.2  0.0051
 6602.5  0.0051
 6606.9  0.0051
 6611.2  0.0052
 6615.5  0.0052
 6619.9  0.0052
 6624.2  0.0052
 6628.5  0.0052
 6632.9  0.0052
 6637.2  0.0053
 6641.5  0.0053
 6645.9  0.0053
 6650.2  0.0054
 6654.6  0.0054
 6658.9  0.0053
 6663.2  0.0054
 6667.6  0.0054
 6671.9  0.0054
 6676.2  0.0054
 6680.6  0.0054
 6684.9  0.0055
 6689.3  0.0055
 6693.6  0.0055
 6697.9  0.0055
 6702.3  0.0055
 6706.6  0.0055
 6711.0  0.0055
 6715.3  0.0055
 6719.6  0.0056
 6724.0  0.0055
 6728.3  0.0056
 6732.7  0.0056
 6737.0  0.0055
 6741.4  0.0057
 6745.7  0.0056
 6750.0  0.0057
 6754.4  0.0057
 6758.7  0.0057
 6763.1  0.0058
 6767.4  0.0058
 6771.8  0.0059
 6776.1  0.0059
 6780.5  0.0059
 6784.8  0.0059
 6789.2  0.0061
 6793.5  0.0060
 6797.9  0.0061
 6802.2  0.0060
 6806.6  0.0062
 6810.9  0.0062
 6815.3  0.0063
 6819.6  0.0064
 6824.0  0.0065
 6828.3  0.0065
 6832.7  0.0066
 6837.0  0.0067
 6841.4  0.0068
 6845.7  0.0069
 6850.1  0.0071
 6854.4  0.0074
 6858.8  0.0076
 6863.1  0.0079
 6867.5  0.0082
 6871.8  0.0086
 6876.2  0.0090
 6880.6  0.0096
 6884.9  0.0105
 6889.3  0.0116
 6893.6  0.0130
 6898.0  0.0148
 6902.3  0.0171
 6906.7  0.0202
 6911.1  0.0244
 6915.4  0.0299
 6919.8  0.0372
 6924.1  0.0466
 6928.5  0.0584
 6932.9  0.0732
 6937.2  0.0914
 6941.6  0.1130
 6945.9  0.1386
 6950.3  0.1684
 6954.7  0.2025
 6959.0  0.2414
 6963.4  0.2848
 6967.7  0.3324
 6972.1  0.3836
 6976.5  0.4376
 6980.8  0.4932
 6985.2  0.5487
 6989.6  0.6010
 6993.9  0.6495
 6998.3  0.6920
 7002.7  0.7277
 7007.0  0.7576
 7011.4  0.7811
 7015.8  0.8000
 7020.1  0.8153
 7024.5  0.8283
 7028.9  0.8392
 7033.2  0.8491
 7037.6  0.8578
 7042.0  0.8651
 7046.3  0.8726
 7050.7  0.8795
 7055.1  0.8853
 7059.4  0.8896
 7063.8  0.8942
 7068.2  0.8987
 7072.6  0.9018
 7076.9  0.9044
 7081.3  0.9064
 7085.7  0.9083
 7090.0  0.9103
 7094.4  0.9115
 7098.8  0.9118
 7103.2  0.9128
 7107.5  0.9126
 7111.9  0.9125
 7116.3  0.9126
 7120.7  0.9124
 7125.0  0.9119
 7129.4  0.9107
 7133.8  0.9096
 7138.2  0.9086
 7142.5  0.9075
 7146.9  0.9066
 7151.3  0.9054
 7155.7  0.9043
 7160.1  0.9034
 7164.4  0.9030
 7168.8  0.9023
 7173.2  0.9027
 7177.6  0.9027
 7182.0  0.9025
 7186.3  0.9031
 7190.7  0.9040
 7195.1  0.9046
 7199.5  0.9042
 7203.9  0.9052
 7208.2  0.9052
 7212.6  0.9056
 7217.0  0.9064
 7221.4  0.9065
 7225.8  0.9082
 7230.2  0.9083
 7234.5  0.9109
 7238.9  0.9114
 7243.3  0.9127
 7247.7  0.9147
 7252.1  0.9173
 7256.5  0.9183
 7260.8  0.9197
 7265.2  0.9215
 7269.6  0.9233
 7274.0  0.9241
 7278.4  0.9258
 7282.8  0.9269
 7287.2  0.9279
 7291.6  0.9284
 7296.0  0.9295
 7300.3  0.9295
 7304.7  0.9298
 7309.1  0.9301
 7313.5  0.9304
 7317.9  0.9313
 7322.3  0.9312
 7326.7  0.9311
 7331.1  0.9311
 7335.5  0.9304
 7339.9  0.9309
 7344.2  0.9308
 7348.6  0.9308
 7353.0  0.9302
 7357.4  0.9300
 7361.8  0.9302
 7366.2  0.9293
 7370.6  0.9290
 7375.0  0.9297
 7379.4  0.9293
 7383.8  0.9294
 7388.2  0.9291
 7392.6  0.9295
 7397.0  0.9297
 7401.4  0.9303
 7405.8  0.9301
 7410.2  0.9308
 7414.6  0.9310
 7419.0  0.9309
 7423.4  0.9309
 7427.8  0.9310
 7432.2  0.9309
 7436.6  0.9301
 7441.0  0.9299
 7445.4  0.9295
 7449.8  0.9291
 7454.2  0.9288
 7458.6  0.9287
 7463.0  0.9279
 7467.4  0.9283
 7471.8  0.9280
 7476.2  0.9268
 7480.6  0.9279
 7485.0  0.9280
 7489.4  0.9277
 7493.8  0.9281
 7498.2  0.9288
 7502.6  0.9284
 7507.0  0.9294
 7511.4  0.9287
 7515.8  0.9294
 7520.2  0.9300
 7524.6  0.9302
 7529.0  0.9302
 7533.4  0.9301
 7537.9  0.9298
 7542.3  0.9309
 7546.7  0.9315
 7551.1  0.9314
 7555.5  0.9320
 7559.9  0.9325
 7564.3  0.9333
 7568.7  0.9334
 7573.1  0.9332
 7577.5  0.9345
 7581.9  0.9351
 7586.4  0.9350
 7590.8  0.9355
 7595.2  0.9356
 7599.6  0.9363
 7604.0  0.9369
 7608.4  0.9369
 7612.8  0.9360
 7617.2  0.9365
 7621.7  0.9367
 7626.1  0.9372
 7630.5  0.9371
 7634.9  0.9369
 7639.3  0.9365
 7643.7  0.9361
 7648.1  0.9360
 7652.6  0.9366
 7657.0  0.9360
 7661.4  0.9366
 7665.8  0.9367
 7670.2  0.9360
 7674.6  0.9356
 7679.1  0.9355
 7683.5  0.9349
 7687.9  0.9352
 7692.3  0.9345
 7696.7  0.9338
 7701.1  0.9340
 7705.6  0.9334
 7710.0  0.9331
 7714.4  0.9328
 7718.8  0.9326
 7723.2  0.9319
 7727.7  0.9323
 7732.1  0.9324
 7736.5  0.9321
 7740.9  0.9322
 7745.4  0.9323
 7749.8  0.9329
 7754.2  0.9327
 7758.6  0.9327
 7763.0  0.9331
 7767.5  0.9337
 7771.9  0.9342
 7776.3  0.9336
 7780.7  0.9334
 7785.2  0.9331
 7789.6  0.9332
 7794.0  0.9332
 7798.4  0.9328
 7802.9  0.9328
 7807.3  0.9323
 7811.7  0.9317
 7816.1  0.9317
 7820.6  0.9309
 7825.0  0.9316
 7829.4  0.9306
 7833.9  0.9311
 7838.3  0.9302
 7842.7  0.9301
 7847.1  0.9307
 7851.6  0.9309
 7856.0  0.9311
 7860.4  0.9313
 7864.9  0.9305
 7869.3  0.9310
 7873.7  0.9310
 7878.2  0.9306
 7882.6  0.9307
 7887.0  0.9313
 7891.5  0.9320
 7895.9  0.9319
 7900.3  0.9312
 7904.8  0.9320
 7909.2  0.9314
 7913.6  0.9322
 7918.1  0.9322
 7922.5  0.9325
 7926.9  0.9325
 7931.4  0.9332
 7935.8  0.9338
 7940.2  0.9343
 7944.7  0.9347
 7949.1  0.9351
 7953.5  0.9354
 7958.0  0.9360
 7962.4  0.9364
 7966.8  0.9367
 7971.3  0.9368
 7975.7  0.9372
 7980.2  0.9376
 7984.6  0.9378
 7989.0  0.9380
 7993.5  0.9374
 7997.9  0.9382
 8002.4  0.9375
 8006.8  0.9376
 8011.2  0.9375
 8015.7  0.9366
 8020.1  0.9371
 8024.6  0.9369
 8029.0  0.9369
 8033.4  0.9366
 8037.9  0.9360
 8042.3  0.9350
 8046.8  0.9353
 8051.2  0.9347
 8055.7  0.9343
 8060.1  0.9338
 8064.5  0.9330
 8069.0  0.9322
 8073.4  0.9321
 8077.9  0.9310
 8082.3  0.9315
 8086.8  0.9310
 8091.2  0.9301
 8095.7  0.9309
 8100.1  0.9295
 8104.6  0.9295
 8109.0  0.9304
 8113.4  0.9289
 8117.9  0.9296
 8122.3  0.9308
 8126.8  0.9309
 8131.2  0.9305
 8135.7  0.9303
 8140.1  0.9314
 8144.6  0.9317
 8149.0  0.9317
 8153.5  0.9310
 8157.9  0.9313
 8162.4  0.9315
 8166.8  0.9313
 8171.3  0.9312
 8175.7  0.9313
 8180.2  0.9315
 8184.6  0.9310
 8189.1  0.9298
 8193.5  0.9300
 8198.0  0.9305
 8202.5  0.9307
 8206.9  0.9302
 8211.4  0.9302
 8215.8  0.9290
 8220.3  0.9299
 8224.7  0.9289
 8229.2  0.9288
 8233.6  0.9283
 8238.1  0.9268
 8242.5  0.9267
 8247.0  0.9262
 8251.4  0.9253
 8255.9  0.9256
 8260.4  0.9244
 8264.8  0.9248
 8269.3  0.9246
 8273.7  0.9236
 8278.2  0.9234
 8282.6  0.9238
 8287.1  0.9239
 8291.6  0.9238
 8296.0  0.9231
 8300.5  0.9237
 8304.9  0.9250
 8309.4  0.9239
 8313.9  0.9257
 8318.3  0.9253
 8322.8  0.9250
 8327.2  0.9251
 8331.7  0.9257
 8336.2  0.9257
 8340.6  0.9254
 8345.1  0.9252
 8349.5  0.9250
 8354.0  0.9243
 8358.5  0.9234
 8362.9  0.9235
 8367.4  0.9227
 8371.9  0.9218
 8376.3  0.9214
 8380.8  0.9203
 8385.3  0.9191
 8389.7  0.9184
 8394.2  0.9181
 8398.6  0.9170
 8403.1  0.9166
 8407.6  0.9151
 8412.0  0.9134
 8416.5  0.9121
 8421.0  0.9095
 8425.4  0.9083
 8429.9  0.9064
 8434.4  0.9044
 8438.8  0.9031
 8443.3  0.9001
 8447.8  0.8985
 8452.2  0.8963
 8456.7  0.8937
 8461.2  0.8917
 8465.7  0.8885
 8470.1  0.8854
 8474.6  0.8815
 8479.1  0.8764
 8483.5  0.8719
 8488.0  0.8647
 8492.5  0.8572
 8496.9  0.8472
 8501.4  0.8360
 8505.9  0.8208
 8510.4  0.8050
 8514.8  0.7863
 8519.3  0.7637
 8523.8  0.7406
 8528.2  0.7135
 8532.7  0.6841
 8537.2  0.6528
 8541.7  0.6191
 8546.1  0.5839
 8550.6  0.5471
 8555.1  0.5090
 8559.6  0.4692
 8564.0  0.4285
 8568.5  0.3872
 8573.0  0.3462
 8577.5  0.3063
 8581.9  0.2681
 8586.4  0.2323
 8590.9  0.2001
 8595.4  0.1710
 8599.8  0.1464
 8604.3  0.1254
 8608.8  0.1083
 8613.3  0.0944
 8617.8  0.0830
 8622.2  0.0741
 8626.7  0.0665
 8631.2  0.0606
 8635.7  0.0559
 8640.1  0.0520
 8644.6  0.0483
 8649.1  0.0452
 8653.6  0.0427
 8658.1  0.0402
 8662.5  0.0381
 8667.0  0.0363
 8671.5  0.0342
 8676.0  0.0328
 8680.5  0.0315
 8684.9  0.0303
 8689.4  0.0293
 8693.9  0.0282
 8698.4  0.0274
 8702.9  0.0267
 8707.4  0.0262
 8711.8  0.0257
 8716.3  0.0250
 8720.8  0.0246
 8725.3  0.0243
 8729.8  0.0238
 8734.3  0.0232
 8738.7  0.0227
 8743.2  0.0225
 8747.7  0.0219
 8752.2  0.0215
 8756.7  0.0213
 8761.2  0.0207
 8765.7  0.0206
 8770.1  0.0204
 8774.6  0.0200
 8779.1  0.0201
 8783.6  0.0196
 8788.1  0.0194
 8792.6  0.0193
 8797.1  0.0192
 8801.6  0.0189
 8806.0  0.0188
 8810.5  0.0186
 8815.0  0.0183
 8819.5  0.0179
 8824.0  0.0180
 8828.5  0.0177
 8833.0  0.0174
 8837.5  0.0172
 8842.0  0.0171
 8846.4  0.0170
 8850.9  0.0167
 8855.4  0.0165
 8859.9  0.0164
 8864.4  0.0165
 8868.9  0.0163
 8873.4  0.0162
 8877.9  0.0162
 8882.4  0.0161
 8886.9  0.0161
 8891.4  0.0161
 8895.8  0.0160
 8900.3  0.0158
 8904.8  0.0156
 8909.3  0.0155
 8913.8  0.0153
 8918.3  0.0152
 8922.8  0.0151
 8927.3  0.0149
 8931.8  0.0149
 8936.3  0.0149
 8940.8  0.0151
 8945.3  0.0149
 8949.8  0.0147
 8954.3  0.0149
 8958.8  0.0148
 8963.3  0.0148
 8967.8  0.0146
 8972.3  0.0145
 8976.8  0.0145
 8981.3  0.0146
 8985.7  0.0145
 8990.2  0.0141
 8994.7  0.0142
 8999.2  0.0139
